No	wavelength[nm]	Absorption[0..1]
1	250	0.81552
2	260	0.79934
3	270	0.77973
4	280	0.7549
5	290	0.72396
6	300	0.69693
7	310	0.66337
8	320	0.54803
9	330	0.52695
10	340	0.42473
11	350	0.35106
12	360	0.20825
13	370	0.19542
14	380	0.14258
15	390	0.12070
16	400	0.10407
17	410	0.08730
18	420	0.08993
19	430	0.10044
20	440	0.10212
21	450	0.11335
22	460	0.12346
23	470	0.126
24	480	0.12879
25	490	0.13471
26	500	0.14167
27	510	0.14377
28	520	0.14835
29	530	0.15446
30	540	0.15496
31	550	0.15680
32	560	0.15832
33	570	0.15427
34	580	0.15713
35	590	0.15744
36	600	0.15682
37	610	0.15418
38	620	0.14878
39	630	0.15017
40	640	0.14838
41	650	0.13147
42	660	0.14688
43	670	0.14231
44	680	0.14828
45	690	0.13845
46	700	0.136
47	710	0.13350
48	720	0.12987
49	730	0.12837
50	740	0.12633
51	750	0.12435
52	760	0.12578
53	770	0.12074
54	780	0.11880
55	790	0.11625
56	800	0.11185
57	810	0.10659
58	820	0.10605
59	830	0.10316
60	840	0.10109
61	850	0.09960
62	860	0.09900
63	870	0.09604
64	880	0.09428
65	890	0.09394
66	900	0.08898
67	910	0.08708
68	920	0.08372
69	930	0.07877
70	940	0.08435
71	950	0.08015
72	960	0.07832
73	970	0.07502
74	980	0.07436
75	990	0.07601
76	1000	0.07343
77	1010	0.06813
78	1020	0.07491
79	1030	0.07370
80	1040	0.07789
81	1050	0.07108
82	1060	0.07109
83	1070	0.06509
84	1080	0.06520
85	1090	0.06371
86	1100	0.06239
87	1110	0.05665
88	1120	0.05983
89	1130	0.06138
90	1140	0.06913
91	1150	0.07949
92	1160	0.07363
93	1170	0.07439
94	1180	0.08501
95	1190	0.09656
96	1200	0.13363
97	1210	0.08651
98	1220	0.085
99	1230	0.08978
100	1240	0.0887
101	1250	0.10256
102	1260	0.10609
103	1270	0.10593
104	1280	0.10644
105	1290	0.11423
106	1300	0.11603
107	1310	0.126
108	1320	0.13075
109	1330	0.14617
110	1340	0.14684
111	1350	0.1583
112	1360	0.16462
113	1370	0.17969
114	1380	0.20104
115	1390	0.19246
116	1400	0.1965
117	1410	0.21086
118	1420	0.21629
119	1430	0.21841
120	1440	0.21947
121	1450	0.23574
122	1460	0.23808
123	1470	0.24239
124	1480	0.24642
125	1490	0.24866
126	1500	0.23969
127	1510	0.25519
128	1520	0.25305
129	1530	0.25262
130	1540	0.24824
131	1550	0.25152
132	1560	0.24468
133	1570	0.23748
134	1580	0.24191
135	1590	0.24537
136	1600	0.2198
137	1610	0.22144
138	1620	0.2205
139	1630	0.2182
140	1640	0.21527
141	1650	0.21239
142	1660	0.21468
143	1670	0.21456
144	1680	0.21617
145	1690	0.21629
146	1700	0.21848
147	1710	0.22153
148	1720	0.22014
149	1730	0.22199
150	1740	0.22315
151	1750	0.22301
152	1760	0.22006
153	1770	0.2187
154	1780	0.22347
155	1790	0.22351
156	1800	0.22512
157	1810	0.22474
158	1820	0.22447
159	1830	0.2282
160	1840	0.22793
161	1850	0.23182
162	1860	0.22671
163	1870	0.22568
164	1880	0.22872
165	1890	0.21449
166	1900	0.22783
167	1910	0.23248
168	1920	0.21956
169	1930	0.2282
170	1940	0.23462
171	1950	0.23561
172	1960	0.23326
173	1970	0.24342
174	1980	0.24639
175	1990	0.25126
176	2000	0.25232
